Data format:  Wavelength (nm) <tab> Transmission (%)
1050.0	0.00529
1050.2	0.00535
1050.4	0.00541
1050.6	0.00547
1050.8	0.00507
1051.0	0.00516
1051.2	0.00573
1051.4	0.00565
1051.6	0.00547
1051.8	0.00527
1052.0	0.00549
1052.2	0.00529
1052.4	0.00529
1052.6	0.00533
1052.8	0.00686
1053.0	0.00568
1053.2	0.00533
1053.4	0.00677
1053.6	0.00581
1053.8	0.00575
1054.0	0.00731
1054.2	0.00623
1054.4	0.00632
1054.6	0.00637
1054.8	0.00682
1055.0	0.00767
1055.2	0.00606
1055.4	0.00873
1055.6	0.00606
1055.8	0.00374
1056.0	0.00161
1056.2	6.964e-04
1056.4	7.243e-04
1056.6	7.5898e-04
1056.8	8.3585e-04
1057.0	7.9671e-04
1057.2	6.8263e-04
1057.4	6.1189e-04
1057.6	5.4071e-04
1057.8	4.0692e-04
1058.0	2.9294e-04
1058.2	2.5472e-04
1058.4	3.2272e-04
1058.6	3.0593e-04
1058.8	2.0032e-04
1059.0	1.5284e-04
1059.2	1.3826e-04
1059.4	1.4818e-04
1059.6	1.6062e-04
1059.8	1.4542e-04
1060.0	1.2197e-04
1060.2	1.7936e-04
1060.4	1.4853e-04
1060.6	1.3078e-04
1060.8	1.15e-04
1061.0	1.0176e-04
1061.2	1.1299e-04
1061.4	1.2547e-04
1061.6	1.2521e-04
1061.8	1.2436e-04
1062.0	1.2436e-04
1062.2	1.0442e-04
1062.4	1.0161e-04
1062.6	1.9307e-04
1062.8	2.5836e-05
1063.0	1.0846e-05
1063.2	3.4615e-05
1063.4	5.2464e-05
1063.6	5.6537e-05
1063.8	1.5578e-05
1064.0	2.1459e-05
1064.2	3.9474e-05
1064.4	4.4565e-05
1064.6	3.7752e-05
1064.8	2.9234e-05
1065.0	3.6544e-05
1065.2	5.2872e-05
1065.4	2.3062e-05
1065.6	1.1307e-05
1065.8	1.2372e-04
1066.0	5.1736e-05
1066.2	1.4047e-04
1066.4	4.0504e-04
1066.6	9.772e-04
1066.8	0.00208
1067.0	0.0064
1067.2	0.02207
1067.4	0.07235
1067.6	0.18689
1067.8	0.69019
1068.0	3.21803
1068.2	12.73121
1068.4	22.11139
1068.6	33.80549
1068.8	45.83528
1069.0	57.6764
1069.2	69.0966
1069.4	78.7332
1069.6	85.2048
1069.8	88.3973
1070.0	92.48058
1070.2	93.8861
1070.4	94.86355
1070.6	95.83899
1070.8	96.58137
1071.0	96.98999
1071.2	97.1705
1071.4	97.13008
1071.6	97.20767
1071.8	97.3866
1072.0	97.64797
1072.2	97.92748
1072.4	98.21556
1072.6	98.34604
1072.8	98.40123
1073.0	98.31089
1073.2	98.16855
1073.4	98.01406
1073.6	97.98881
1073.8	98.18405
1074.0	98.32373
1074.2	98.46746
1074.4	98.62342
1074.6	98.62792
1074.8	98.6419
1075.0	98.63107
1075.2	98.51906
1075.4	98.48466
1075.6	98.49394
1075.8	98.59812
1076.0	98.63947
1076.2	98.74608
1076.4	98.91893
1076.6	99.05845
1076.8	99.16447
1077.0	99.21566
1077.2	99.21703
1077.4	99.18115
1077.6	99.15357
1077.8	99.10475
1078.0	98.96779
1078.2	98.89242
1078.4	98.94353
1078.6	98.96058
1078.8	99.04579
1079.0	99.18327
1079.2	99.24246
1079.4	98.98484
1079.6	99.11395
1079.8	98.87796
1080.0	98.89658
1080.2	98.91565
1080.4	98.90905
1080.6	98.80025
1080.8	98.7842
1081.0	98.70747
1081.2	98.6408
1081.4	98.64775
1081.6	98.67779
1081.8	98.69981
1082.0	98.79149
1082.2	98.91617
1082.4	99.03724
1082.6	99.09864
1082.8	99.04454
1083.0	99.15389
1083.2	99.1727
1083.4	99.17648
1083.6	99.14308
1083.8	99.09233
1084.0	98.9921
1084.2	98.92992
1084.4	98.88059
1084.6	98.80823
1084.8	98.77623
1085.0	98.87231
1085.2	98.96657
1085.4	99.05571
1085.6	99.15582
1085.8	99.20646
1086.0	99.26793
1086.2	99.35839
1086.4	99.45161
1086.6	99.60948
1086.8	99.55444
1087.0	99.62848
1087.2	99.69112
1087.4	99.7096
1087.6	99.63523
1087.8	99.64237
1088.0	99.58819
1088.2	99.4881
1088.4	99.49431
1088.6	99.48499
1088.8	99.55601
1089.0	99.46171
1089.2	99.24841
1089.4	99.15689
1089.6	99.22851
1089.8	99.31043
1090.0	99.36836
1090.2	99.44526
1090.4	99.41983
1090.6	99.57539
1090.8	99.60741
1091.0	99.56876
1091.2	99.58965
1091.4	99.58703
1091.6	99.38511
1091.8	99.21797
1092.0	99.20226
1092.2	99.11571
1092.4	99.03721
1092.6	98.97628
1092.8	98.91466
1093.0	98.939
1093.2	99.03256
1093.4	99.00778
1093.6	99.12006
1093.8	99.14374
1094.0	99.29649
1094.2	99.25042
1094.4	99.388
1094.6	99.43865
1094.8	99.49177
1095.0	99.59914
1095.2	99.55939
1095.4	99.60554
1095.6	99.49611
1095.8	99.45034
1096.0	99.51983
1096.2	99.38947
1096.4	99.32734
1096.6	99.32336
1096.8	99.21435
1097.0	99.25339
1097.2	99.19888
1097.4	99.11895
1097.6	99.20611
1097.8	99.2296
1098.0	99.21344
1098.2	99.24514
1098.4	99.30416
1098.6	99.38841
1098.8	99.40464
1099.0	99.41455
1099.2	99.47157
1099.4	99.5143
1099.6	99.54306
1099.8	99.554
1100.0	99.50736
1100.2	99.55327
1100.4	99.40545
1100.6	99.38254
1100.8	99.26789
1101.0	99.29851
1101.2	99.14522
1101.4	99.1462
1101.6	99.16964
1101.8	99.15903
1102.0	99.10862
1102.2	99.14115
1102.4	99.1177
1102.6	99.09898
1102.8	99.11497
1103.0	99.19621
1103.2	99.24339
1103.4	99.33315
1103.6	99.3552
1103.8	99.3442
1104.0	99.45141
1104.2	99.53024
1104.4	99.58093
1104.6	99.52584
1104.8	99.55087
1105.0	99.56323
1105.2	99.59773
1105.4	99.56473
1105.6	99.49379
1105.8	99.45033
1106.0	99.33158
1106.2	99.34103
1106.4	99.20569
1106.6	99.11487
1106.8	98.95996
1107.0	99.05247
1107.2	99.03805
1107.4	99.06103
1107.6	99.1029
1107.8	99.12516
1108.0	99.0942
1108.2	99.21404
1108.4	99.2239
1108.6	99.33768
1108.8	99.35297
1109.0	99.41949
1109.2	99.43032
1109.4	99.59901
1109.6	99.63123
1109.8	99.65865
1110.0	99.67607
1110.2	99.62659
1110.4	99.6329
1110.6	99.58576
1110.8	99.4872
1111.0	99.46972
1111.2	99.44199
1111.4	99.36288
1111.6	99.28153
1111.8	99.22083
1112.0	99.16318
1112.2	99.18734
1112.4	99.22843
1112.6	99.31012
1112.8	99.08232
1113.0	99.20262
1113.2	99.25921
1113.4	99.2498
1113.6	99.22151
1113.8	99.39444
1114.0	99.24007
1114.2	99.30354
1114.4	99.54637
1114.6	99.55419
1114.8	99.57669
1115.0	99.56761
1115.2	99.58466
1115.4	99.3957
1115.6	99.41856
1115.8	99.44832
1116.0	99.46395
1116.2	99.37001
1116.4	99.30707
1116.6	99.46929
1116.8	99.4219
1117.0	99.31514
1117.2	99.24846
1117.4	99.15853
1117.6	99.06798
1117.8	99.17897
1118.0	99.0633
1118.2	99.11772
1118.4	99.11029
1118.6	99.09834
1118.8	99.23047
1119.0	99.19381
1119.2	99.21765
1119.4	99.2736
1119.6	99.22251
1119.8	99.36009
1120.0	99.40492
1120.2	99.37699
1120.4	99.45012
1120.6	99.53385
1120.8	99.40201
1121.0	99.34199
1121.2	99.47877
1121.4	99.43895
1121.6	99.41251
1121.8	99.42645
1122.0	99.35561
1122.2	99.24479
1122.4	99.13881
1122.6	99.04578
1122.8	98.96714
1123.0	98.98103
1123.2	98.88296
1123.4	98.8136
1123.6	98.71824
1123.8	98.71112
1124.0	98.76099
1124.2	98.70694
1124.4	98.52561
1124.6	98.74175
1124.8	98.70365
1125.0	98.69903
1125.2	98.843
1125.4	98.78185
1125.6	98.96227
1125.8	98.9509
1126.0	99.19919
1126.2	99.09351
1126.4	99.10562
1126.6	99.07961
1126.8	99.01402
1127.0	99.0059
1127.2	98.99778
1127.4	98.98966
1127.6	98.98154
1127.8	98.97343
1128.0	98.96531
1128.2	98.95719
1128.4	98.94907
1128.6	98.94095
1128.8	98.93284
1129.0	98.92472
1129.2	98.9166
1129.4	98.90848
1129.6	98.90036
1129.8	98.89224
1130.0	98.88413
1130.2	98.87601
1130.4	98.86789
1130.6	98.85977
1130.8	98.85165
1131.0	98.84354
1131.2	98.83542
1131.4	98.8273
1131.6	98.81918
1131.8	98.81265
1132.0	98.80697
1132.2	98.8013
1132.4	98.79562
1132.6	98.78995
1132.8	98.78427
1133.0	98.7786
1133.2	98.77292
1133.4	98.76725
1133.6	98.76157
1133.8	98.7559
1134.0	98.75022
1134.2	98.74454
1134.4	98.73887
1134.6	98.73319
1134.8	98.72752
1135.0	98.72184
1135.2	98.71617
1135.4	98.71049
1135.6	98.70482
1135.8	98.69914
1136.0	98.69346
1136.2	98.68779
1136.4	98.68211
1136.6	98.67644
1136.8	98.67844
1137.0	98.68528
1137.2	98.69213
1137.4	98.69898
1137.6	98.70582
1137.8	98.71267
1138.0	98.71952
1138.2	98.72636
1138.4	98.73321
1138.6	98.74006
1138.8	98.7469
1139.0	98.75375
1139.2	98.7606
1139.4	98.76744
1139.6	98.77429
1139.8	98.78114
1140.0	98.78798
1140.2	98.79483
1140.4	98.80168
1140.6	98.80852
1140.8	98.81537
1141.0	98.82222
1141.2	98.82906
1141.4	98.83591
1141.6	98.84276
1141.8	98.85025
1142.0	98.85822
1142.2	98.8662
1142.4	98.87417
1142.6	98.88214
1142.8	98.89012
1143.0	98.89809
1143.2	98.90606
1143.4	98.91404
1143.6	98.92201
1143.8	98.92998
1144.0	98.93795
1144.2	98.94593
1144.4	98.9539
1144.6	98.96187
1144.8	98.96985
1145.0	98.97782
1145.2	98.98579
1145.4	98.99377
1145.6	99.00174
1145.8	99.00971
1146.0	99.01769
1146.2	99.02566
1146.4	99.03363
1146.6	99.0416
1146.8	99.0385
1147.0	99.02591
1147.2	99.01333
1147.4	99.00074
1147.6	98.98815
1147.8	98.97557
1148.0	98.96298
1148.2	98.95039
1148.4	98.93781
1148.6	98.92522
1148.8	98.91263
1149.0	98.90005
1149.2	98.88746
1149.4	98.87487
1149.6	98.86229
1149.8	98.8497
1150.0	98.83711
1150.2	98.82453
1150.4	98.81194
1150.6	98.79935
1150.8	98.78677
1151.0	98.77418
1151.2	98.76159
1151.4	98.74901
1151.6	98.73642
1151.8	98.7299
1152.0	98.72941
1152.2	98.72892
1152.4	98.72843
1152.6	98.72794
1152.8	98.72745
1153.0	98.72696
1153.2	98.72646
1153.4	98.72597
1153.6	98.72548
1153.8	98.72499
1154.0	98.7245
1154.2	98.72401
1154.4	98.72352
1154.6	98.72302
1154.8	98.72253
1155.0	98.72204
1155.2	98.72155
1155.4	98.72106
1155.6	98.72057
1155.8	98.72008
1156.0	98.71959
1156.2	98.71909
1156.4	98.7186
1156.6	98.71811
1156.8	98.7196
1157.0	98.72337
1157.2	98.72713
1157.4	98.7309
1157.6	98.73467
1157.8	98.73843
1158.0	98.7422
1158.2	98.74596
1158.4	98.74973
1158.6	98.7535
1158.8	98.75726
1159.0	98.76103
1159.2	98.7648
1159.4	98.76856
1159.6	98.77233
1159.8	98.77609
1160.0	98.77986
1160.2	98.78363
1160.4	98.78739
1160.6	98.79116
1160.8	98.79493
1161.0	98.79869
1161.2	98.80246
1161.4	98.80623
1161.6	98.80999
1161.8	98.81093
1162.0	98.8081
1162.2	98.80527
1162.4	98.80245
1162.6	98.79962
1162.8	98.79679
1163.0	98.79396
1163.2	98.79113
1163.4	98.7883
1163.6	98.78547
1163.8	98.78264
1164.0	98.77981
1164.2	98.77698
1164.4	98.77415
1164.6	98.77132
1164.8	98.76849
1165.0	98.76566
1165.2	98.76283
1165.4	98.76
1165.6	98.75717
1165.8	98.75434
1166.0	98.75151
1166.2	98.74868
1166.4	98.74585
1166.6	98.74302
1166.8	98.74094
1167.0	98.74003
1167.2	98.73911
1167.4	98.7382
1167.6	98.73729
1167.8	98.73637
1168.0	98.73546
1168.2	98.73455
1168.4	98.73364
1168.6	98.73272
1168.8	98.73181
1169.0	98.7309
1169.2	98.72999
1169.4	98.72907
1169.6	98.72816
1169.8	98.72725
1170.0	98.72634
1170.2	98.72542
1170.4	98.72451
1170.6	98.7236
1170.8	98.72268
1171.0	98.72177
1171.2	98.72086
1171.4	98.71995
1171.6	98.71903
1171.8	98.7191
1172.0	98.72095
1172.2	98.7228
1172.4	98.72465
1172.6	98.7265
1172.8	98.72835
1173.0	98.7302
1173.2	98.73205
1173.4	98.7339
1173.6	98.73575
1173.8	98.7376
1174.0	98.73945
1174.2	98.7413
1174.4	98.74315
1174.6	98.745
1174.8	98.74685
1175.0	98.7487
1175.2	98.75055
1175.4	98.7524
1175.6	98.75425
1175.8	98.7561
1176.0	98.75795
1176.2	98.7598
1176.4	98.76165
1176.6	98.7635
1176.8	98.76173
1177.0	98.75217
1177.2	98.74262
1177.4	98.73306
1177.6	98.7235
1177.8	98.71395
1178.0	98.70439
1178.2	98.69484
1178.4	98.68528
1178.6	98.67572
1178.8	98.66617
1179.0	98.65661
1179.2	98.64706
1179.4	98.6375
1179.6	98.62795
1179.8	98.61839
1180.0	98.60883
1180.2	98.59928
1180.4	98.58972
1180.6	98.58017
1180.8	98.57061
1181.0	98.56105
1181.2	98.5515
1181.4	98.54194
1181.6	98.53239
1181.8	98.52726
1182.0	98.53351
1182.2	98.53975
1182.4	98.546
1182.6	98.55225
1182.8	98.5585
1183.0	98.56474
1183.2	98.57099
1183.4	98.57724
1183.6	98.58348
1183.8	98.58973
1184.0	98.59598
1184.2	98.60223
1184.4	98.60847
1184.6	98.61472
1184.8	98.62097
1185.0	98.62721
1185.2	98.63346
1185.4	98.63971
1185.6	98.64596
1185.8	98.6522
1186.0	98.65845
1186.2	98.6647
1186.4	98.67094
1186.6	98.67719
1186.8	98.68097
1187.0	98.67707
1187.2	98.67316
1187.4	98.66926
1187.6	98.66536
1187.8	98.66146
1188.0	98.65755
1188.2	98.65365
1188.4	98.64975
1188.6	98.64585
1188.8	98.64194
1189.0	98.63804
1189.2	98.63414
1189.4	98.63024
1189.6	98.62633
1189.8	98.62243
1190.0	98.61853
1190.2	98.61463
1190.4	98.61072
1190.6	98.60682
1190.8	98.60292
1191.0	98.59902
1191.2	98.59511
1191.4	98.59121
1191.6	98.58731
1191.8	98.58377
1192.0	98.58162
1192.2	98.57948
1192.4	98.57733
1192.6	98.57518
1192.8	98.57304
1193.0	98.57089
1193.2	98.56874
1193.4	98.5666
1193.6	98.56445
1193.8	98.5623
1194.0	98.56016
1194.2	98.55801
1194.4	98.55586
1194.6	98.55372
1194.8	98.55157
1195.0	98.54942
1195.2	98.54728
1195.4	98.54513
1195.6	98.54299
1195.8	98.54084
1196.0	98.53869
1196.2	98.53655
1196.4	98.5344
1196.6	98.53225
1196.8	98.53144
1197.0	98.53718
1197.2	98.54293
1197.4	98.54867
1197.6	98.55441
1197.8	98.56015
1198.0	98.56589
1198.2	98.57163
1198.4	98.57738
1198.6	98.58312
1198.8	98.58886
1199.0	98.5946
1199.2	98.60034
1199.4	98.60608
1199.6	98.61183
1199.8	98.61757
1200.0	98.62331
1200.2	98.62905
1200.4	98.63479
1200.6	98.64053
1200.8	98.64628
1201.0	98.65202
1201.2	98.65776
1201.4	98.6635
1201.6	98.66924
1201.8	98.6736
1202.0	98.66891
1202.2	98.66421
1202.4	98.65952
1202.6	98.65483
1202.8	98.65013
1203.0	98.64544
1203.2	98.64074
1203.4	98.63605
1203.6	98.63136
1203.8	98.62666
1204.0	98.62197
1204.2	98.61728
1204.4	98.61258
1204.6	98.60789
1204.8	98.60319
1205.0	98.5985
1205.2	98.59381
1205.4	98.58911
1205.6	98.58442
1205.8	98.57972
1206.0	98.57503
1206.2	98.57034
1206.4	98.56564
1206.6	98.56095
1206.8	98.55722
1207.0	98.56259
1207.2	98.56796
1207.4	98.57333
1207.6	98.5787
1207.8	98.58407
1208.0	98.58944
1208.2	98.59481
1208.4	98.60018
1208.6	98.60555
1208.8	98.61092
1209.0	98.61629
1209.2	98.62166
1209.4	98.62703
1209.6	98.6324
1209.8	98.63777
1210.0	98.64314
1210.2	98.64851
1210.4	98.65388
1210.6	98.65925
1210.8	98.66462
1211.0	98.66999
1211.2	98.67536
1211.4	98.68073
1211.6	98.6861
1211.8	98.69066
1212.0	98.68224
1212.2	98.67381
1212.4	98.66539
1212.6	98.65697
1212.8	98.64855
1213.0	98.64012
1213.2	98.6317
1213.4	98.62328
1213.6	98.61485
1213.8	98.60643
1214.0	98.59801
1214.2	98.58958
1214.4	98.58116
1214.6	98.57274
1214.8	98.56432
1215.0	98.55589
1215.2	98.54747
1215.4	98.53905
1215.6	98.53062
1215.8	98.5222
1216.0	98.51378
1216.2	98.50536
1216.4	98.49693
1216.6	98.48851
1216.8	98.48046
1217.0	98.48932
1217.2	98.49818
1217.4	98.50704
1217.6	98.5159
1217.8	98.52476
1218.0	98.53362
1218.2	98.54248
1218.4	98.55134
1218.6	98.5602
1218.8	98.56906
1219.0	98.57792
1219.2	98.58678
1219.4	98.59564
1219.6	98.6045
1219.8	98.61336
1220.0	98.62222
1220.2	98.63108
1220.4	98.63994
1220.6	98.6488
1220.8	98.65766
1221.0	98.66652
1221.2	98.67538
1221.4	98.68424
1221.6	98.6931
1221.8	98.70196
1222.0	98.69811
1222.2	98.69406
1222.4	98.69001
1222.6	98.68596
1222.8	98.6819
1223.0	98.67785
1223.2	98.6738
1223.4	98.66975
1223.6	98.6657
1223.8	98.66165
1224.0	98.6576
1224.2	98.65354
1224.4	98.64949
1224.6	98.64544
1224.8	98.64139
1225.0	98.63734
1225.2	98.63329
1225.4	98.62923
1225.6	98.62518
1225.8	98.62113
1226.0	98.61708
1226.2	98.61303
1226.4	98.60898
1226.6	98.60493
1226.8	98.60087
1227.0	98.60479
1227.2	98.60915
1227.4	98.6135
1227.6	98.61786
1227.8	98.62221
1228.0	98.62657
1228.2	98.63093
1228.4	98.63528
1228.6	98.63964
1228.8	98.64399
1229.0	98.64835
1229.2	98.65271
1229.4	98.65706
1229.6	98.66142
1229.8	98.66577
1230.0	98.67013
1230.2	98.67449
1230.4	98.67884
1230.6	98.6832
1230.8	98.68755
1231.0	98.69191
1231.2	98.69626
1231.4	98.70062
1231.6	98.70498
1231.8	98.70933
1232.0	98.70434
1232.2	98.69843
1232.4	98.69251
1232.6	98.6866
1232.8	98.68069
1233.0	98.67478
1233.2	98.66887
1233.4	98.66296
1233.6	98.65704
1233.8	98.65113
1234.0	98.64522
1234.2	98.63931
1234.4	98.6334
1234.6	98.62748
1234.8	98.62157
1235.0	98.61566
1235.2	98.60975
1235.4	98.60384
1235.6	98.59793
1235.8	98.59201
1236.0	98.5861
1236.2	98.58019
1236.4	98.57428
1236.6	98.56837
1236.8	98.56246
1237.0	98.56698
1237.2	98.57301
1237.4	98.57905
1237.6	98.58508
1237.8	98.59111
1238.0	98.59715
1238.2	98.60318
1238.4	98.60922
1238.6	98.61525
1238.8	98.62128
1239.0	98.62732
1239.2	98.63335
1239.4	98.63938
1239.6	98.64542
1239.8	98.65145
1240.0	98.65748
1240.2	98.66352
1240.4	98.66955
1240.6	98.67558
1240.8	98.68162
1241.0	98.68765
1241.2	98.69368
1241.4	98.69972
1241.6	98.70575
1241.8	98.71178
1242.0	98.71296
1242.2	98.71319
1242.4	98.71342
1242.6	98.71365
1242.8	98.71388
1243.0	98.71412
1243.2	98.71435
1243.4	98.71458
1243.6	98.71481
1243.8	98.71504
1244.0	98.71527
1244.2	98.7155
1244.4	98.71573
1244.6	98.71596
1244.8	98.71619
1245.0	98.71642
1245.2	98.71665
1245.4	98.71688
1245.6	98.71712
1245.8	98.71735
1246.0	98.71758
1246.2	98.71781
1246.4	98.71804
1246.6	98.71827
1246.8	98.7185
1247.0	98.71953
1247.2	98.72075
1247.4	98.72198
1247.6	98.7232
1247.8	98.72443
1248.0	98.72565
1248.2	98.72688
1248.4	98.7281
1248.6	98.72933
1248.8	98.73055
1249.0	98.73178
1249.2	98.73301
1249.4	98.73423
1249.6	98.73546
1249.8	98.73668
1250.0	98.73791
1250.2	98.73913
1250.4	98.74036
1250.6	98.74158
1250.8	98.74281
1251.0	98.74403
1251.2	98.74526
1251.4	98.74649
1251.6	98.74771
1251.8	98.74894
1252.0	98.74437
1252.2	98.73801
1252.4	98.73165
1252.6	98.72529
1252.8	98.71893
1253.0	98.71257
1253.2	98.70621
1253.4	98.69984
1253.6	98.69348
1253.8	98.68712
1254.0	98.68076
1254.2	98.6744
1254.4	98.66804
1254.6	98.66168
1254.8	98.65532
1255.0	98.64895
1255.2	98.64259
1255.4	98.63623
1255.6	98.62987
1255.8	98.62351
1256.0	98.61715
1256.2	98.61079
1256.4	98.60443
1256.6	98.59806
1256.8	98.5917
1257.0	98.59181
1257.2	98.59435
1257.4	98.5969
1257.6	98.59944
1257.8	98.60199
1258.0	98.60453
1258.2	98.60708
1258.4	98.60962
1258.6	98.61217
1258.8	98.61471
1259.0	98.61726
1259.2	98.6198
1259.4	98.62235
1259.6	98.62489
1259.8	98.62744
1260.0	98.62998
1260.2	98.63253
1260.4	98.63507
1260.6	98.63762
1260.8	98.64016
1261.0	98.64271
1261.2	98.64525
1261.4	98.6478
1261.6	98.65034
1261.8	98.65289
1262.0	98.65384
1262.2	98.65408
1262.4	98.65431
1262.6	98.65455
1262.8	98.65478
1263.0	98.65502
1263.2	98.65526
1263.4	98.65549
1263.6	98.65573
1263.8	98.65596
1264.0	98.6562
1264.2	98.65644
1264.4	98.65667
1264.6	98.65691
1264.8	98.65714
1265.0	98.65738
1265.2	98.65762
1265.4	98.65785
1265.6	98.65809
1265.8	98.65832
1266.0	98.65856
1266.2	98.6588
1266.4	98.65903
1266.6	98.65927
1266.8	98.6595
1267.0	98.66294
1267.2	98.66808
1267.4	98.67322
1267.6	98.67836
1267.8	98.68351
1268.0	98.68865
1268.2	98.69379
1268.4	98.69893
1268.6	98.70407
1268.8	98.70922
1269.0	98.71436
1269.2	98.7195
1269.4	98.72464
1269.6	98.72978
1269.8	98.73492
1270.0	98.74007
1270.2	98.74521
1270.4	98.75035
1270.6	98.75549
1270.8	98.76063
1271.0	98.76578
1271.2	98.77092
1271.4	98.77606
1271.6	98.7812
1271.8	98.78634
1272.0	98.78418
1272.2	98.77745
1272.4	98.77072
1272.6	98.76398
1272.8	98.75725
1273.0	98.75052
1273.2	98.74379
1273.4	98.73705
1273.6	98.73032
1273.8	98.72359
1274.0	98.71686
1274.2	98.71013
1274.4	98.70339
1274.6	98.69666
1274.8	98.68993
1275.0	98.6832
1275.2	98.67646
1275.4	98.66973
1275.6	98.663
1275.8	98.65627
1276.0	98.64954
1276.2	98.6428
1276.4	98.63607
1276.6	98.62934
1276.8	98.62261
1277.0	98.6236
1277.2	98.63022
1277.4	98.63684
1277.6	98.64346
1277.8	98.65008
1278.0	98.6567
1278.2	98.66332
1278.4	98.66994
1278.6	98.67656
1278.8	98.68318
1279.0	98.6898
1279.2	98.69643
1279.4	98.70305
1279.6	98.70967
1279.8	98.71629
1280.0	98.72291
1280.2	98.72953
1280.4	98.73615
1280.6	98.74277
1280.8	98.74939
1281.0	98.75601
1281.2	98.76263
1281.4	98.76926
1281.6	98.77588
1281.8	98.7825
1282.0	98.78305
1282.2	98.77845
1282.4	98.77386
1282.6	98.76926
1282.8	98.76467
1283.0	98.76007
1283.2	98.75548
1283.4	98.75088
1283.6	98.74629
1283.8	98.74169
1284.0	98.7371
1284.2	98.7325
1284.4	98.72791
1284.6	98.72331
1284.8	98.71872
1285.0	98.71413
1285.2	98.70953
1285.4	98.70494
1285.6	98.70034
1285.8	98.69575
1286.0	98.69115
1286.2	98.68656
1286.4	98.68196
1286.6	98.67737
1286.8	98.67277
1287.0	98.67479
1287.2	98.6833
1287.4	98.69182
1287.6	98.70033
1287.8	98.70885
1288.0	98.71736
1288.2	98.72588
1288.4	98.73439
1288.6	98.74291
1288.8	98.75142
1289.0	98.75994
1289.2	98.76845
1289.4	98.77697
1289.6	98.78548
1289.8	98.794
1290.0	98.80251
1290.2	98.81103
1290.4	98.81954
1290.6	98.82806
1290.8	98.83657
1291.0	98.84509
1291.2	98.8536
1291.4	98.86211
1291.6	98.87063
1291.8	98.87914
1292.0	98.88191
1292.2	98.87811
1292.4	98.87432
1292.6	98.87053
1292.8	98.86673
1293.0	98.86294
1293.2	98.85914
1293.4	98.85535
1293.6	98.85156
1293.8	98.84776
1294.0	98.84397
1294.2	98.84017
1294.4	98.83638
1294.6	98.83259
1294.8	98.82879
1295.0	98.825
1295.2	98.8212
1295.4	98.81741
1295.6	98.81362
1295.8	98.80982
1296.0	98.80603
1296.2	98.80223
1296.4	98.79844
1296.6	98.79465
1296.8	98.79085
1297.0	98.79061
1297.2	98.79506
1297.4	98.7995
1297.6	98.80395
1297.8	98.8084
1298.0	98.81285
1298.2	98.8173
1298.4	98.82175
1298.6	98.8262
1298.8	98.83064
1299.0	98.83509
1299.2	98.83954
1299.4	98.84399
1299.6	98.84844
1299.8	98.85289
1300.0	98.85734
1300.2	98.86179
